%% logfile from robot Freja (4)
% Freja (4)
%  1    time 0.000 sec
%  2  3 Motor voltage [V] left, right: 3.00 3.00
%  4  5 Motor current left, right [A]: 0.124 0.134
%  6  7 Wheel velocity [m/s] left, right: 0.0000 0.0000
0.000 3.00 3.00 0.005 -0.005 0.0000 0.0000 
0.001 3.00 3.00 0.169 0.026 0.0000 0.0000 
0.002 3.00 3.00 0.531 0.267 0.0000 0.0000 
0.003 3.00 3.00 0.720 0.557 0.0000 0.0000 
0.004 3.00 3.00 0.786 0.733 0.0000 0.0000 
0.005 3.00 3.00 0.779 0.833 0.0000 0.0000 
0.006 3.00 3.00 0.832 0.891 0.0000 0.0000 
0.007 3.00 3.00 0.863 0.911 0.0000 0.0000 
0.008 3.00 3.00 0.804 0.918 0.0000 0.0000 
0.009 3.00 3.00 0.817 0.855 0.0000 0.0000 
0.010 3.00 3.00 0.874 0.728 0.1410 0.0000 
0.011 3.00 3.00 0.768 0.691 0.1410 0.1575 
0.012 3.00 3.00 0.702 0.672 0.1928 0.1575 
0.013 3.00 3.00 0.692 0.652 0.1928 0.1976 
0.014 3.00 3.00 0.649 0.637 0.2086 0.2327 
0.015 3.00 3.00 0.619 0.633 0.2465 0.2327 
0.016 3.00 3.00 0.620 0.623 0.2465 0.2685 
0.017 3.00 3.00 0.626 0.585 0.2858 0.2987 
0.018 3.00 3.00 0.717 0.562 0.3116 0.2987 
0.019 3.00 3.00 0.645 0.531 0.3326 0.3216 
0.020 3.00 3.00 0.668 0.515 0.3326 0.3361 
0.021 3.00 3.00 0.485 0.485 0.3545 0.3569 
0.022 3.00 3.00 0.488 0.511 0.3735 0.3747 
0.023 3.00 3.00 0.528 0.539 0.3882 0.3846 
0.024 3.00 3.00 0.517 0.540 0.3985 0.3946 
0.025 3.00 3.00 0.592 0.481 0.4227 0.4145 
0.026 3.00 3.00 0.459 0.461 0.4419 0.4283 
0.027 3.00 3.00 0.489 0.440 0.4638 0.4391 
0.028 3.00 3.00 0.428 0.454 0.4773 0.4433 
0.029 3.00 3.00 0.448 0.499 0.4719 0.4727 
0.030 3.00 3.00 0.388 0.418 0.4692 0.4760 
0.031 3.00 3.00 0.355 0.371 0.4772 0.4809 
0.032 3.00 3.00 0.547 0.372 0.5061 0.4963 
0.033 3.00 3.00 0.398 0.371 0.5154 0.5105 
0.034 3.00 3.00 0.436 0.348 0.5177 0.5197 
0.035 3.00 3.00 0.348 0.336 0.5431 0.5329 
0.036 3.00 3.00 0.356 0.312 0.5451 0.5353 
0.037 3.00 3.00 0.364 0.311 0.5526 0.5368 
0.038 3.00 3.00 0.297 0.317 0.5735 0.5490 
0.039 3.00 3.00 0.383 0.317 0.5793 0.5606 
0.040 3.00 3.00 0.391 0.341 0.5951 0.5681 
0.041 3.00 3.00 0.340 0.389 0.5993 0.5809 
0.042 3.00 3.00 0.307 0.341 0.6025 0.5907 
0.043 3.00 3.00 0.368 0.294 0.6162 0.5902 
0.044 3.00 3.00 0.314 0.290 0.6267 0.6028 
0.045 3.00 3.00 0.356 0.276 0.6288 0.6053 
0.046 3.00 3.00 0.286 0.268 0.6433 0.6168 
0.047 3.00 3.00 0.264 0.258 0.6445 0.6220 
0.048 3.00 3.00 0.246 0.263 0.6530 0.6218 
0.049 3.00 3.00 0.292 0.269 0.6593 0.6315 
0.050 3.00 3.00 0.240 0.240 0.6663 0.6421 
0.051 3.00 3.00 0.259 0.279 0.6710 0.6442 
0.052 3.00 3.00 0.275 0.297 0.6701 0.6541 
0.053 3.00 3.00 0.215 0.262 0.6704 0.6568 
0.054 3.00 3.00 0.197 0.225 0.6759 0.6628 
0.055 3.00 3.00 0.325 0.213 0.6842 0.6699 
0.056 3.00 3.00 0.246 0.221 0.6905 0.6756 
0.057 3.00 3.00 0.151 0.210 0.6897 0.6815 
0.058 3.00 3.00 0.204 0.237 0.7049 0.6781 
0.059 3.00 3.00 0.227 0.218 0.7113 0.6898 
0.060 3.00 3.00 0.189 0.215 0.7144 0.6939 
0.061 3.00 3.00 0.246 0.245 0.7162 0.6997 
0.062 3.00 3.00 0.198 0.229 0.7221 0.7061 
0.063 3.00 3.00 0.198 0.193 0.7310 0.7164 
0.064 3.00 3.00 0.237 0.161 0.7285 0.7171 
0.065 3.00 3.00 0.241 0.164 0.7392 0.7185 
0.066 3.00 3.00 0.224 0.153 0.7396 0.7223 
0.067 3.00 3.00 0.192 0.151 0.7468 0.7206 
0.068 3.00 3.00 0.150 0.162 0.7488 0.7262 
0.069 3.00 3.00 0.116 0.168 0.7502 0.7260 
0.070 3.00 3.00 0.193 0.215 0.7578 0.7322 
0.071 3.00 3.00 0.204 0.185 0.7601 0.7350 
0.072 3.00 3.00 0.131 0.164 0.7697 0.7377 
0.073 3.00 3.00 0.142 0.137 0.7683 0.7413 
0.074 3.00 3.00 0.206 0.156 0.7721 0.7463 
0.075 3.00 3.00 0.166 0.151 0.7738 0.7574 
0.076 3.00 3.00 0.106 0.156 0.7777 0.7482 
0.077 3.00 3.00 0.120 0.153 0.7813 0.7604 
0.078 3.00 3.00 0.273 0.153 0.7823 0.7638 
0.079 3.00 3.00 0.212 0.185 0.7842 0.7616 
0.080 3.00 3.00 0.198 0.165 0.7906 0.7644 
0.081 3.00 3.00 0.114 0.130 0.7942 0.7692 
0.082 3.00 3.00 0.084 0.124 0.7973 0.7741 
0.083 3.00 3.00 0.086 0.111 0.7941 0.7773 
0.084 3.00 3.00 0.197 0.141 0.8060 0.7778 
0.085 3.00 3.00 0.154 0.158 0.8002 0.7862 
0.086 3.00 3.00 0.113 0.150 0.8036 0.7848 
0.087 3.00 3.00 0.101 0.155 0.7990 0.7876 
0.088 3.00 3.00 0.143 0.151 0.8031 0.7850 
0.089 3.00 3.00 0.202 0.113 0.8009 0.8003 
0.090 3.00 3.00 0.121 0.103 0.8083 0.7967 
0.091 3.00 3.00 0.078 0.126 0.8089 0.8012 
0.092 3.00 3.00 0.073 0.118 0.8098 0.7978 
0.093 3.00 3.00 0.151 0.116 0.8122 0.7969 
0.094 3.00 3.00 0.246 0.116 0.8151 0.7994 
0.095 3.00 3.00 0.161 0.134 0.8160 0.8030 
0.096 3.00 3.00 0.070 0.141 0.8185 0.8029 
0.097 3.00 3.00 0.113 0.130 0.8201 0.8035 
0.098 3.00 3.00 0.187 0.127 0.8225 0.8054 
0.099 3.00 3.00 0.173 0.126 0.8234 0.8066 
0.100 3.00 3.00 0.118 0.122 0.8265 0.8084 
0.101 3.00 3.00 0.116 0.125 0.8263 0.8111 
0.102 3.00 3.00 0.192 0.115 0.8282 0.8149 
0.103 3.00 3.00 0.124 0.122 0.8307 0.8167 
0.104 3.00 3.00 0.097 0.138 0.8321 0.8165 
0.105 3.00 3.00 0.207 0.119 0.8341 0.8189 
0.106 3.00 3.00 0.157 0.105 0.8385 0.8212 
0.107 3.00 3.00 0.033 0.098 0.8382 0.8230 
0.108 3.00 3.00 0.022 0.104 0.8431 0.8243 
0.109 3.00 3.00 0.158 0.118 0.8430 0.8276 
0.110 3.00 3.00 0.147 0.108 0.8445 0.8277 
0.111 3.00 3.00 0.072 0.109 0.8452 0.8281 
0.112 3.00 3.00 0.040 0.114 0.8489 0.8296 
0.113 3.00 3.00 0.098 0.071 0.8482 0.8325 
0.114 3.00 3.00 0.155 0.069 0.8491 0.8329 
0.115 3.00 3.00 0.044 0.077 0.8499 0.8357 
0.116 3.00 3.00 0.055 0.086 0.8520 0.8354 
0.117 3.00 3.00 0.152 0.089 0.8528 0.8349 
0.118 3.00 3.00 0.135 0.089 0.8534 0.8379 
0.119 3.00 3.00 0.047 0.127 0.8545 0.8381 
0.120 3.00 3.00 0.109 0.140 0.8556 0.8377 
0.121 3.00 3.00 0.138 0.111 0.8564 0.8078 
0.122 3.00 3.00 0.086 0.096 0.8559 0.8384 
0.123 3.00 3.00 0.027 0.100 0.8585 0.8393 
0.124 3.00 3.00 0.036 0.100 0.8582 0.8388 
0.125 3.00 3.00 0.145 0.088 0.8572 0.8438 
0.126 3.00 3.00 0.108 0.078 0.8575 0.8441 
0.127 3.00 3.00 0.013 0.097 0.8594 0.8437 
0.128 3.00 3.00 0.063 0.106 0.8600 0.8425 
0.129 3.00 3.00 0.107 0.111 0.8638 0.8430 
0.130 3.00 3.00 0.095 0.098 0.8645 0.8467 
0.131 3.00 3.00 0.030 0.104 0.8661 0.8461 
0.132 3.00 3.00 0.023 0.126 0.8661 0.8488 
0.133 3.00 3.00 0.122 0.107 0.8671 0.8506 
0.134 3.00 3.00 0.158 0.095 0.8673 0.8517 
0.135 3.00 3.00 0.105 0.122 0.8654 0.8525 
0.136 3.00 3.00 0.059 0.102 0.8658 0.8556 
0.137 3.00 3.00 0.023 0.081 0.8666 0.8554 
0.138 3.00 3.00 0.024 0.070 0.8652 0.8581 
0.139 3.00 3.00 0.107 0.081 0.8670 0.8559 
0.140 3.00 3.00 0.185 0.079 0.8671 0.8557 
0.141 3.00 3.00 0.095 0.071 0.8669 0.8565 
0.142 3.00 3.00 0.021 0.096 0.8646 0.8582 
0.143 3.00 3.00 0.092 0.111 0.8622 0.8585 
0.144 3.00 3.00 0.170 0.100 0.8602 0.8588 
0.145 3.00 3.00 0.100 0.092 0.8594 0.8581 
0.146 3.00 3.00 0.125 0.088 0.8607 0.8571 
0.147 3.00 3.00 0.152 0.081 0.8610 0.8557 
0.148 3.00 3.00 0.097 0.065 0.8632 0.8596 
0.149 3.00 3.00 0.031 0.066 0.8604 0.8598 
0.150 3.00 3.00 0.112 0.095 0.8646 0.8589 
0.151 3.00 3.00 0.150 0.089 0.8651 0.8582 
0.152 3.00 3.00 0.111 0.069 0.8653 0.8610 
0.153 3.00 3.00 0.010 0.056 0.8688 0.8624 
0.154 3.00 3.00 0.002 0.089 0.8680 0.8622 
0.155 3.00 3.00 0.061 0.102 0.8707 0.8651 
0.156 3.00 3.00 0.133 0.077 0.8696 0.8636 
0.157 3.00 3.00 0.055 0.081 0.8726 0.8641 
0.158 3.00 3.00 0.098 0.082 0.8713 0.8648 
0.159 3.00 3.00 0.086 0.077 0.8729 0.8635 
0.160 3.00 3.00 0.044 0.054 0.8743 0.8674 
0.161 3.00 3.00 0.075 0.062 0.8756 0.8669 
0.162 3.00 3.00 0.166 0.048 0.8560 0.8669 
0.163 3.00 3.00 0.099 0.054 0.8783 0.8685 
0.164 3.00 3.00 0.044 0.072 0.8797 0.8677 
0.165 3.00 3.00 0.149 0.101 0.8777 0.8706 
0.166 3.00 3.00 0.094 0.109 0.8811 0.8693 
0.167 3.00 3.00 0.019 0.097 0.8808 0.8677 
0.168 3.00 3.00 0.010 0.074 0.8812 0.8690 
0.169 3.00 3.00 0.101 0.076 0.8797 0.8702 
0.170 3.00 3.00 0.144 0.077 0.8787 0.8706 
0.171 3.00 3.00 0.120 0.062 0.8756 0.8719 
0.172 3.00 3.00 0.040 0.073 0.8804 0.8738 
0.173 3.00 3.00 0.021 0.099 0.8805 0.8701 
0.174 3.00 3.00 0.083 0.104 0.8802 0.8707 
0.175 3.00 3.00 0.140 0.077 0.8842 0.8708 
0.176 3.00 3.00 0.129 0.081 0.8825 0.8723 
0.177 3.00 3.00 0.161 0.102 0.8853 0.8685 
0.178 3.00 3.00 0.084 0.084 0.8832 0.8717 
0.179 3.00 3.00 0.002 0.064 0.8840 0.8705 
0.180 3.00 3.00 0.037 0.088 0.8785 0.8721 
0.181 3.00 3.00 -0.002 0.082 0.8777 0.8755 
0.182 3.00 3.00 0.031 0.072 0.8776 0.8739 
0.183 3.00 3.00 0.059 0.062 0.8773 0.8770 
0.184 3.00 3.00 0.147 0.065 0.8795 0.8744 
0.185 3.00 3.00 0.064 0.075 0.8788 0.8719 
0.186 3.00 3.00 0.006 0.064 0.8785 0.8762 
0.187 3.00 3.00 0.018 0.095 0.8790 0.8747 
0.188 3.00 3.00 0.079 0.110 0.8788 0.8770 
0.189 3.00 3.00 0.115 0.097 0.8789 0.8763 
0.190 3.00 3.00 0.086 0.070 0.8795 0.8757 
0.191 3.00 3.00 0.056 0.066 0.8787 0.8764 
0.192 3.00 3.00 0.162 0.086 0.8780 0.8749 
0.193 3.00 3.00 0.130 0.081 0.8777 0.8779 
0.194 3.00 3.00 0.059 0.077 0.8787 0.8787 
0.195 3.00 3.00 0.033 0.100 0.8799 0.8752 
0.196 3.00 3.00 0.036 0.095 0.8830 0.8774 
0.197 3.00 3.00 0.072 0.066 0.8815 0.8746 
0.198 3.00 3.00 0.081 0.061 0.8827 0.8793 
0.199 3.00 3.00 0.107 0.086 0.8845 0.8780 
0.200 3.00 3.00 0.072 0.092 0.8831 0.8780 
0.201 3.00 3.00 0.120 0.069 0.8826 0.8792 
0.202 3.00 3.00 0.108 0.092 0.8802 0.8814 
0.203 3.00 3.00 0.082 0.088 0.8843 0.8800 
0.204 3.00 3.00 0.036 0.058 0.8826 0.8814 
0.205 3.00 3.00 0.059 0.047 0.8823 0.8846 
0.206 3.00 3.00 0.121 0.060 0.8809 0.8829 
0.207 3.00 3.00 0.075 0.059 0.8774 0.8825 
0.208 3.00 3.00 0.110 0.045 0.8775 0.8828 
0.209 3.00 3.00 0.076 0.075 0.8783 0.8828 
0.210 3.00 3.00 0.063 0.091 0.8784 0.8833 
0.211 3.00 3.00 0.101 0.088 0.8780 0.8820 
0.212 3.00 3.00 0.041 0.079 0.8789 0.8843 
0.213 3.00 3.00 0.032 0.066 0.8779 0.8841 
0.214 3.00 3.00 0.148 0.084 0.8789 0.8819 
0.215 3.00 3.00 0.136 0.070 0.8778 0.8853 
0.216 3.00 3.00 0.010 0.069 0.8780 0.8858 
0.217 3.00 3.00 0.055 0.098 0.8790 0.8755 
0.218 3.00 3.00 0.084 0.091 0.8820 0.8715 
0.219 3.00 3.00 0.102 0.069 0.8813 0.8721 
0.220 3.00 3.00 0.109 0.057 0.8816 0.8730 
0.221 3.00 3.00 0.107 0.080 0.8833 0.8735 
0.222 3.00 3.00 0.030 0.096 0.8829 0.8757 
0.223 3.00 3.00 0.045 0.075 0.8822 0.8744 
0.224 3.00 3.00 0.118 0.093 0.8826 0.8746 
0.225 3.00 3.00 0.063 0.111 0.8833 0.8755 
0.226 3.00 3.00 0.043 0.080 0.8854 0.8784 
0.227 3.00 3.00 0.070 0.067 0.8821 0.8775 
0.228 3.00 3.00 0.082 0.070 0.8855 0.8789 
0.229 3.00 3.00 0.062 0.061 0.8836 0.8813 
0.230 3.00 3.00 0.059 0.052 0.8839 0.8846 
0.231 3.00 3.00 0.253 0.083 0.8839 0.8848 
0.232 3.00 3.00 0.147 0.120 0.8842 0.8852 
0.233 3.00 3.00 0.067 0.100 0.8824 0.8837 
0.234 3.00 3.00 0.008 0.065 0.8848 0.8861 
0.235 3.00 3.00 0.050 0.067 0.8836 0.8852 
0.236 3.00 3.00 0.139 0.079 0.8845 0.8866 
0.237 3.00 3.00 0.099 0.080 0.8850 0.8888 
0.238 3.00 3.00 0.128 0.060 0.8841 0.8888 
0.239 3.00 3.00 0.119 0.082 0.8847 0.8873 
0.240 3.00 3.00 0.139 0.094 0.8874 0.8866 
0.241 3.00 3.00 0.049 0.075 0.8869 0.8888 
0.242 3.00 3.00 -0.024 0.058 0.8881 0.8889 
0.243 3.00 3.00 0.021 0.067 0.8880 0.8884 
0.244 3.00 3.00 0.085 0.081 0.8892 0.8910 
0.245 3.00 3.00 0.137 0.059 0.8886 0.8894 
0.246 3.00 3.00 0.078 0.087 0.8880 0.8893 
0.247 3.00 3.00 0.087 0.085 0.8880 0.8901 
0.248 3.00 3.00 0.153 0.062 0.8887 0.8911 
0.249 3.00 3.00 0.030 0.036 0.8877 0.8883 
0.250 3.00 3.00 0.076 0.058 0.8896 0.8850 
0.251 3.00 3.00 0.051 0.064 0.8880 0.8833 
0.252 3.00 3.00 0.010 0.054 0.8882 0.8845 
0.253 3.00 3.00 0.083 0.067 0.8879 0.8833 
0.254 3.00 3.00 0.138 0.090 0.8884 0.8836 
0.255 3.00 3.00 0.034 0.105 0.8877 0.8821 
0.256 3.00 3.00 0.027 0.064 0.8877 0.8816 
0.257 3.00 3.00 0.090 0.066 0.8872 0.8836 
0.258 3.00 3.00 0.150 0.081 0.8872 0.8821 
0.259 3.00 3.00 0.093 0.064 0.8884 0.8857 
0.260 3.00 3.00 0.022 0.054 0.8859 0.8842 
0.261 3.00 3.00 0.011 0.092 0.8875 0.8840 
0.262 3.00 3.00 0.055 0.093 0.8904 0.8857 
0.263 3.00 3.00 0.059 0.073 0.8894 0.8851 
0.264 3.00 3.00 0.081 0.061 0.8907 0.8852 
0.265 3.00 3.00 0.066 0.082 0.8889 0.8851 
0.266 3.00 3.00 0.195 0.088 0.8909 0.8881 
0.267 3.00 3.00 0.108 0.063 0.8904 0.8861 
0.268 3.00 3.00 0.112 0.073 0.8898 0.8863 
0.269 3.00 3.00 0.072 0.081 0.8898 0.8864 
0.270 3.00 3.00 0.010 0.054 0.8882 0.8882 
0.271 3.00 3.00 -0.016 0.035 0.8899 0.8874 
0.272 3.00 3.00 0.081 0.060 0.8909 0.8871 
0.273 3.00 3.00 0.170 0.078 0.8874 0.8847 
0.274 3.00 3.00 0.107 0.046 0.8903 0.8897 
0.275 3.00 3.00 0.099 0.065 0.8864 0.8889 
0.276 3.00 3.00 0.071 0.092 0.8906 0.8857 
0.277 3.00 3.00 0.019 0.092 0.8889 0.8882 
0.278 3.00 3.00 -0.035 0.058 0.8888 0.8887 
0.279 3.00 3.00 0.078 0.053 0.8884 0.8888 
0.280 3.00 3.00 0.291 0.069 0.8882 0.8876 
0.281 3.00 3.00 0.160 0.065 0.8864 0.8901 
0.282 3.00 3.00 0.105 0.055 0.8872 0.8904 
0.283 3.00 3.00 0.241 0.082 0.8884 0.8881 
0.284 3.00 3.00 0.152 0.089 0.8898 0.8891 
0.285 3.00 3.00 0.283 0.058 0.8864 0.8888 
0.286 3.00 3.00 0.074 0.045 0.8831 0.8893 
0.287 3.00 3.00 0.029 0.079 0.8863 0.8894 
0.288 3.00 3.00 0.136 0.089 0.8849 0.8920 
0.289 3.00 3.00 0.087 0.069 0.8852 0.8891 
0.290 3.00 3.00 0.051 0.082 0.8853 0.8873 
0.291 3.00 3.00 0.040 0.096 0.8861 0.8861 
0.292 3.00 3.00 0.076 0.071 0.8855 0.8863 
0.293 3.00 3.00 0.035 0.055 0.8867 0.8880 
0.294 3.00 3.00 0.042 0.066 0.8874 0.8886 
0.295 3.00 3.00 0.059 0.063 0.8854 0.8881 
0.296 3.00 3.00 0.067 0.043 0.8834 0.8886 
0.297 3.00 3.00 0.031 0.069 0.8866 0.8884 
0.298 3.00 3.00 0.033 0.099 0.8866 0.8890 
0.299 3.00 3.00 0.102 0.082 0.8856 0.8567 
0.300 3.00 3.00 0.039 0.058 0.8865 0.8894 
0.301 3.00 3.00 0.068 0.058 0.8859 0.8886 
0.302 3.00 3.00 0.072 0.079 0.8835 0.8874 
0.303 3.00 3.00 0.087 0.063 0.8848 0.8905 
0.304 3.00 3.00 0.114 0.048 0.8861 0.8912 
0.305 3.00 3.00 0.114 0.077 0.8869 0.8875 
0.306 3.00 3.00 0.048 0.087 0.8902 0.8888 
0.307 3.00 3.00 0.154 0.065 0.8897 0.8889 
0.308 3.00 3.00 0.111 0.041 0.8886 0.8865 
0.309 3.00 3.00 0.055 0.081 0.8928 0.8910 
0.310 3.00 3.00 0.079 0.082 0.8920 0.8884 
0.311 3.00 3.00 0.097 0.051 0.8914 0.8908 
0.312 3.00 3.00 0.093 0.084 0.8919 0.8906 
0.313 3.00 3.00 0.202 0.093 0.8927 0.8913 
0.314 3.00 3.00 0.109 0.060 0.8933 0.8931 
0.315 3.00 3.00 0.150 0.039 0.8939 0.8957 
0.316 3.00 3.00 0.071 0.046 0.8919 0.8935 
0.317 3.00 3.00 0.099 0.067 0.8943 0.8928 
0.318 3.00 3.00 0.119 0.054 0.8931 0.8936 
0.319 3.00 3.00 0.069 0.065 0.8945 0.8950 
0.320 3.00 3.00 0.009 0.096 0.8937 0.8958 
0.321 3.00 3.00 0.086 0.086 0.8926 0.8941 
0.322 3.00 3.00 0.211 0.059 0.8949 0.8939 
0.323 3.00 3.00 0.067 0.065 0.8921 0.8941 
0.324 3.00 3.00 0.097 0.077 0.8910 0.8925 
0.325 3.00 3.00 0.110 0.062 0.8902 0.8950 
0.326 3.00 3.00 0.043 0.055 0.8913 0.8957 
0.327 3.00 3.00 0.054 0.079 0.8917 0.8922 
0.328 3.00 3.00 0.104 0.063 0.8930 0.8934 
0.329 3.00 3.00 0.034 0.056 0.8948 0.8941 
0.330 3.00 3.00 0.053 0.046 0.8937 0.8921 
0.331 3.00 3.00 0.086 0.073 0.8957 0.8953 
0.332 3.00 3.00 0.113 0.064 0.8939 0.8944 
0.333 3.00 3.00 0.098 0.045 0.8949 0.8948 
0.334 3.00 3.00 0.071 0.076 0.8932 0.8939 
0.335 3.00 3.00 0.029 0.062 0.8936 0.8973 
0.336 3.00 3.00 0.055 0.038 0.8937 0.8967 
0.337 3.00 3.00 0.062 0.058 0.8925 0.8986 
0.338 3.00 3.00 0.048 0.061 0.8930 0.8962 
0.339 3.00 3.00 0.079 0.049 0.8933 0.8948 
0.340 3.00 3.00 0.082 0.050 0.8933 0.8958 
0.341 3.00 3.00 0.127 0.075 0.8926 0.8968 
0.342 3.00 3.00 0.071 0.092 0.8937 0.8975 
0.343 3.00 3.00 0.033 0.070 0.8926 0.8958 
0.344 3.00 3.00 0.067 0.065 0.8916 0.8963 
0.345 3.00 3.00 0.206 0.077 0.8906 0.8945 
0.346 3.00 3.00 0.143 0.063 0.8864 0.8961 
0.347 3.00 3.00 0.116 0.051 0.8852 0.8964 
0.348 3.00 3.00 0.076 0.073 0.8838 0.8993 
0.349 3.00 3.00 0.090 0.092 0.8875 0.8936 
0.350 3.00 3.00 0.101 0.063 0.8870 0.8959 
0.351 3.00 3.00 0.007 0.046 0.8890 0.8961 
0.352 3.00 3.00 0.086 0.061 0.8884 0.8970 
0.353 3.00 3.00 0.102 0.090 0.8883 0.8967 
0.354 3.00 3.00 0.045 0.077 0.8894 0.8970 
0.355 3.00 3.00 -0.005 0.069 0.8903 0.8959 
0.356 3.00 3.00 0.096 0.091 0.8883 0.8956 
0.357 3.00 3.00 0.089 0.083 0.8892 0.8977 
0.358 3.00 3.00 0.002 0.064 0.8901 0.8940 
0.359 3.00 3.00 0.055 0.050 0.8890 0.8915 
0.360 3.00 3.00 0.287 0.058 0.8881 0.8904 
0.361 3.00 3.00 0.111 0.047 0.8888 0.8909 
0.362 3.00 3.00 0.037 0.046 0.8895 0.8910 
0.363 3.00 3.00 0.083 0.085 0.8891 0.8916 
0.364 3.00 3.00 0.127 0.101 0.8889 0.8869 
0.365 3.00 3.00 0.060 0.081 0.8886 0.8905 
0.366 3.00 3.00 0.039 0.070 0.8879 0.8917 
0.367 3.00 3.00 0.085 0.040 0.8835 0.8900 
0.368 3.00 3.00 0.170 0.062 0.8877 0.8913 
0.369 3.00 3.00 0.032 0.059 0.8884 0.8917 
0.370 3.00 3.00 0.101 0.082 0.8881 0.8916 
0.371 3.00 3.00 0.129 0.084 0.8890 0.8895 
0.372 3.00 3.00 0.032 0.066 0.8889 0.8915 
0.373 3.00 3.00 0.067 0.054 0.8894 0.8925 
0.374 3.00 3.00 0.108 0.066 0.8918 0.8867 
0.375 3.00 3.00 0.048 0.070 0.8864 0.8962 
0.376 3.00 3.00 0.044 0.064 0.8927 0.8943 
0.377 3.00 3.00 0.077 0.064 0.8917 0.8939 
0.378 3.00 3.00 0.073 0.085 0.8927 0.8935 
0.379 3.00 3.00 -0.013 0.068 0.8942 0.8978 
0.380 3.00 3.00 0.001 0.056 0.8904 0.8961 
0.381 3.00 3.00 0.071 0.051 0.8919 0.8961 
0.382 3.00 3.00 0.131 0.062 0.8912 0.8962 
0.383 3.00 3.00 0.071 0.056 0.8915 0.8972 
0.384 3.00 3.00 0.040 0.061 0.8909 0.8968 
0.385 3.00 3.00 0.053 0.085 0.8927 0.8972 
0.386 3.00 3.00 0.099 0.084 0.8919 0.8962 
0.387 3.00 3.00 0.115 0.062 0.8911 0.8971 
0.388 3.00 3.00 0.051 0.056 0.8905 0.8976 
0.389 3.00 3.00 0.065 0.071 0.8908 0.8954 
0.390 3.00 3.00 0.002 0.071 0.8901 0.8987 
0.391 3.00 3.00 0.028 0.059 0.8896 0.8991 
0.392 3.00 3.00 0.077 0.084 0.8911 0.8971 
0.393 3.00 3.00 0.036 0.088 0.8921 0.8950 
0.394 3.00 3.00 0.001 0.063 0.8931 0.8973 
0.395 3.00 3.00 0.058 0.050 0.8947 0.8977 
0.396 3.00 3.00 0.116 0.079 0.8941 0.8971 
0.397 3.00 3.00 0.078 0.077 0.8947 0.8972 
0.398 3.00 3.00 0.018 0.062 0.8938 0.8981 
0.399 3.00 3.00 0.048 0.075 0.8477 0.8982 
0.400 3.00 3.00 0.128 0.077 0.8930 0.8983 
0.401 3.00 3.00 0.097 0.055 0.8949 0.8994 
0.402 3.00 3.00 0.008 0.062 0.8929 0.8963 
0.403 3.00 3.00 0.043 0.069 0.8936 0.8905 
0.404 3.00 3.00 0.063 0.064 0.8911 0.8902 
0.405 3.00 3.00 0.103 0.052 0.8932 0.8898 
0.406 3.00 3.00 0.079 0.078 0.8932 0.8892 
0.407 3.00 3.00 0.059 0.107 0.8910 0.8899 
0.408 3.00 3.00 0.025 0.106 0.8933 0.8906 
0.409 3.00 3.00 -0.026 0.072 0.8775 0.8905 
0.410 3.00 3.00 0.024 0.062 0.8924 0.8911 
0.411 3.00 3.00 0.139 0.076 0.8919 0.8893 
0.412 3.00 3.00 0.082 0.072 0.8920 0.8923 
0.413 3.00 3.00 0.029 0.062 0.8908 0.8928 
0.414 3.00 3.00 0.089 0.092 0.8918 0.8897 
0.415 3.00 3.00 0.124 0.088 0.8931 0.8914 
0.416 3.00 3.00 0.042 0.068 0.8944 0.8927 
0.417 3.00 3.00 -0.026 0.052 0.8938 0.8932 
0.418 3.00 3.00 0.047 0.092 0.8826 0.8933 
0.419 3.00 3.00 0.128 0.085 0.8839 0.8936 
0.420 3.00 3.00 0.109 0.059 0.8834 0.8952 
0.421 3.00 3.00 0.112 0.081 0.8836 0.8952 
0.422 3.00 3.00 0.090 0.087 0.8835 0.8977 
0.423 3.00 3.00 0.019 0.073 0.8846 0.8967 
0.424 3.00 3.00 -0.031 0.050 0.8819 0.9021 
0.425 3.00 3.00 0.043 0.065 0.8861 0.8985 
0.426 3.00 3.00 0.153 0.057 0.8849 0.8988 
0.427 3.00 3.00 0.083 0.051 0.8848 0.9003 
0.428 3.00 3.00 0.020 0.079 0.8853 0.8987 
0.429 3.00 3.00 0.090 0.087 0.8848 0.9001 
0.430 3.00 3.00 0.101 0.079 0.8876 0.8984 
0.431 3.00 3.00 0.019 0.052 0.8870 0.8990 
0.432 3.00 3.00 0.088 0.073 0.8885 0.8965 
0.433 3.00 3.00 0.151 0.073 0.8892 0.8986 
0.434 3.00 3.00 0.082 0.051 0.8891 0.8996 
0.435 3.00 3.00 0.020 0.050 0.8887 0.9003 
0.436 3.00 3.00 0.077 0.073 0.8904 0.8959 
0.437 3.00 3.00 0.090 0.069 0.8942 0.8979 
0.438 3.00 3.00 0.013 0.054 0.8935 0.8978 
0.439 3.00 3.00 0.004 0.064 0.8952 0.8983 
0.440 3.00 3.00 0.093 0.082 0.8942 0.8957 
0.441 3.00 3.00 0.112 0.069 0.8932 0.8948 
0.442 3.00 3.00 0.030 0.051 0.8955 0.8930 
0.443 3.00 3.00 -0.025 0.087 0.8946 0.8920 
0.444 3.00 3.00 0.014 0.084 0.8946 0.8944 
0.445 3.00 3.00 0.062 0.050 0.8957 0.8939 
0.446 3.00 3.00 0.069 0.053 0.8943 0.8982 
0.447 3.00 3.00 0.117 0.069 0.8954 0.8936 
0.448 3.00 3.00 0.131 0.059 0.8941 0.8941 
0.449 3.00 3.00 0.172 0.050 0.8942 0.8929 
0.450 3.00 3.00 0.059 0.077 0.8946 0.8950 
0.451 3.00 3.00 0.059 0.086 0.8939 0.8973 
0.452 3.00 3.00 0.099 0.084 0.8933 0.8944 
0.453 3.00 3.00 0.086 0.077 0.8937 0.8947 
0.454 3.00 3.00 0.063 0.067 0.8927 0.8932 
0.455 3.00 3.00 0.089 0.069 0.8926 0.8947 
0.456 3.00 3.00 0.116 0.060 0.8900 0.8955 
0.457 3.00 3.00 0.098 0.067 0.8903 0.8931 
0.458 3.00 3.00 0.033 0.084 0.8909 0.8941 
0.459 3.00 3.00 0.061 0.073 0.8938 0.8947 
0.460 3.00 3.00 0.112 0.057 0.8935 0.8914 
0.461 3.00 3.00 0.104 0.081 0.8893 0.8946 
0.462 3.00 3.00 0.064 0.087 0.8892 0.8981 
0.463 3.00 3.00 0.041 0.072 0.8857 0.8958 
0.464 3.00 3.00 0.071 0.059 0.8865 0.8950 
0.465 3.00 3.00 0.161 0.081 0.8854 0.8951 
0.466 3.00 3.00 0.147 0.068 0.8882 0.8958 
0.467 3.00 3.00 0.073 0.043 0.8882 0.8940 
0.468 3.00 3.00 0.030 0.054 0.8877 0.8935 
0.469 3.00 3.00 0.063 0.054 0.8897 0.8940 
0.470 3.00 3.00 0.099 0.036 0.8885 0.8950 
0.471 3.00 3.00 0.113 0.050 0.8887 0.8952 
0.472 3.00 3.00 0.071 0.096 0.8890 0.8949 
0.473 3.00 3.00 0.115 0.088 0.8891 0.8936 
0.474 3.00 3.00 0.087 0.069 0.8885 0.8947 
0.475 3.00 3.00 0.037 0.071 0.8899 0.8953 
0.476 3.00 3.00 0.108 0.071 0.8866 0.8955 
0.477 3.00 3.00 0.139 0.069 0.8878 0.8966 
0.478 3.00 3.00 0.044 0.063 0.8871 0.8964 
0.479 3.00 3.00 0.078 0.074 0.8879 0.8945 
0.480 3.00 3.00 0.120 0.085 0.8884 0.8939 
0.481 3.00 3.00 0.144 0.058 0.8934 0.8953 
0.482 3.00 3.00 0.036 0.048 0.8933 0.8960 
0.483 3.00 3.00 0.056 0.077 0.8918 0.8955 
0.484 3.00 3.00 0.126 0.080 0.8933 0.8955 
0.485 3.00 3.00 0.071 0.058 0.8925 0.8970 
0.486 3.00 3.00 -0.004 0.073 0.8926 0.8959 
0.487 3.00 3.00 -0.004 0.075 0.8930 0.8960 
0.488 3.00 3.00 0.063 0.062 0.8934 0.8968 
0.489 3.00 3.00 0.081 0.042 0.8934 0.8967 
0.490 3.00 3.00 0.064 0.060 0.8938 0.8966 
0.491 3.00 3.00 0.036 0.057 0.8960 0.8933 
0.492 3.00 3.00 0.055 0.053 0.8950 0.8977 
0.493 3.00 3.00 0.162 0.053 0.8947 0.8963 
0.494 3.00 3.00 0.136 0.092 0.8954 0.8960 
0.495 3.00 3.00 0.138 0.105 0.8952 0.8953 
0.496 3.00 3.00 0.005 0.076 0.8916 0.8960 
0.497 3.00 3.00 -0.030 0.059 0.8940 0.8967 
0.498 3.00 3.00 0.052 0.057 0.8934 0.8953 
0.499 3.00 3.00 0.141 0.056 0.8929 0.8941 
0.500 3.00 3.00 0.115 0.051 0.8925 0.8948 
0.501 6.00 6.00 0.029 0.078 0.8934 0.8928 
0.502 6.00 6.00 0.204 0.124 0.8945 0.8945 
0.503 6.00 6.00 0.458 0.320 0.9052 0.9034 
0.504 6.00 6.00 0.653 0.503 0.9248 0.9151 
0.505 6.00 6.00 0.719 0.599 0.9561 0.9390 
0.506 6.00 6.00 0.760 0.728 0.9755 0.9592 
0.507 6.00 6.00 0.809 0.781 1.0036 0.9892 
0.508 6.00 6.00 0.843 0.790 1.0267 1.0032 
0.509 6.00 6.00 0.751 0.678 1.0510 1.0265 
0.510 6.00 6.00 0.712 0.701 1.0725 1.0490 
0.511 6.00 6.00 0.767 0.627 1.0904 1.0715 
0.512 6.00 6.00 0.707 0.584 1.0925 1.0890 
0.513 6.00 6.00 0.720 0.637 1.1039 1.1084 
0.514 6.00 6.00 0.740 0.667 1.1250 1.1264 
0.515 6.00 6.00 0.697 0.640 1.1449 1.1401 
0.516 6.00 6.00 0.660 0.656 1.1669 1.1583 
0.517 6.00 6.00 0.654 0.606 1.1918 1.1796 
0.518 6.00 6.00 0.640 0.592 1.2092 1.1979 
0.519 6.00 6.00 0.626 0.599 1.2251 1.2117 
0.520 6.00 6.00 0.605 0.539 1.2410 1.2328 
0.521 6.00 6.00 0.565 0.421 1.2644 1.2523 
0.522 6.00 6.00 0.603 0.491 1.2868 1.2476 
0.523 6.00 6.00 0.585 0.471 1.2896 1.2609 
0.524 6.00 6.00 0.541 0.524 1.3194 1.2820 
0.525 6.00 6.00 0.566 0.540 1.3249 1.3001 
0.526 6.00 6.00 0.522 0.477 1.3459 1.3223 
0.527 6.00 6.00 0.471 0.458 1.3623 1.3240 
0.528 6.00 6.00 0.481 0.419 1.3711 1.3387 
0.529 6.00 6.00 0.501 0.447 1.3748 1.3530 
0.530 6.00 6.00 0.444 0.435 1.3849 1.3706 
0.531 6.00 6.00 0.480 0.369 1.3861 1.3875 
0.532 6.00 6.00 0.474 0.390 1.3922 1.4021 
0.533 6.00 6.00 0.566 0.410 1.4080 1.4119 
0.534 6.00 6.00 0.524 0.412 1.4203 1.4130 
0.535 6.00 6.00 0.440 0.403 1.4385 1.4137 
0.536 6.00 6.00 0.430 0.365 1.4557 1.4283 
0.537 6.00 6.00 0.408 0.351 1.4568 1.4506 
0.538 6.00 6.00 0.394 0.349 1.4701 1.4459 
0.539 6.00 6.00 0.423 0.384 1.4760 1.4694 
0.540 6.00 6.00 0.400 0.355 1.4841 1.4810 
0.541 6.00 6.00 0.401 0.332 1.4954 1.4916 
0.542 6.00 6.00 0.380 0.309 1.5028 1.4914 
0.543 6.00 6.00 0.433 0.316 1.5240 1.5006 
0.544 6.00 6.00 0.316 0.331 1.5306 1.5146 
0.545 6.00 6.00 0.390 0.324 1.5389 1.5131 
0.546 6.00 6.00 0.356 0.304 1.5464 1.5180 
0.547 6.00 6.00 0.392 0.310 1.5491 1.5270 
0.548 6.00 6.00 0.299 0.320 1.5687 1.5215 
0.549 6.00 6.00 0.313 0.320 1.5857 1.5380 
0.550 6.00 6.00 0.378 0.313 1.5915 1.5529 
0.551 6.00 6.00 0.343 0.288 1.5951 1.5595 
0.552 6.00 6.00 0.340 0.294 1.6053 1.5678 
0.553 6.00 6.00 0.260 0.267 1.6037 1.5816 
0.554 6.00 6.00 0.301 0.270 1.6094 1.5815 
0.555 6.00 6.00 0.321 0.263 1.6132 1.5924 
0.556 6.00 6.00 0.277 0.274 1.6140 1.5893 
0.557 6.00 6.00 0.341 0.260 1.6114 1.6040 
0.558 6.00 6.00 0.303 0.220 1.6089 1.6064 
0.559 6.00 6.00 0.339 0.244 1.6116 1.6144 
0.560 6.00 6.00 0.291 0.264 1.6189 1.6156 
0.561 6.00 6.00 0.234 0.269 1.6279 1.6238 
0.562 6.00 6.00 0.286 0.256 1.6351 1.6298 
0.563 6.00 6.00 0.259 0.237 1.6432 1.6329 
0.564 6.00 6.00 0.288 0.244 1.6482 1.6399 
0.565 6.00 6.00 0.269 0.245 1.6555 1.6499 
0.566 6.00 6.00 0.272 0.222 1.6604 1.6516 
0.567 6.00 6.00 0.269 0.210 1.6665 1.6618 
0.568 6.00 6.00 0.238 0.256 1.6708 1.6669 
0.569 6.00 6.00 0.243 0.237 1.6789 1.6722 
0.570 6.00 6.00 0.299 0.217 1.6821 1.6728 
0.571 6.00 6.00 0.282 0.147 1.6838 1.6795 
0.572 6.00 6.00 0.215 0.206 1.6942 1.6777 
0.573 6.00 6.00 0.272 0.210 1.7013 1.6718 
0.574 6.00 6.00 0.210 0.209 1.7044 1.6787 
0.575 6.00 6.00 0.266 0.240 1.6993 1.6801 
0.576 6.00 6.00 0.216 0.229 1.7065 1.6873 
0.577 6.00 6.00 0.189 0.186 1.7117 1.6922 
0.578 6.00 6.00 0.276 0.169 1.7136 1.6818 
0.579 6.00 6.00 0.270 0.198 1.7155 1.7036 
0.580 6.00 6.00 0.199 0.218 1.7160 1.7029 
0.581 6.00 6.00 0.280 0.184 1.7197 1.7084 
0.582 6.00 6.00 0.180 0.153 1.7162 1.7155 
0.583 6.00 6.00 0.262 0.195 1.7206 1.7182 
0.584 6.00 6.00 0.166 0.197 1.7338 1.7290 
0.585 6.00 6.00 0.208 0.184 1.7376 1.7324 
0.586 6.00 6.00 0.247 0.163 1.7389 1.7341 
0.587 6.00 6.00 0.173 0.185 1.7393 1.7381 
0.588 6.00 6.00 0.171 0.166 1.7435 1.7428 
0.589 6.00 6.00 0.229 0.153 1.7457 1.7435 
0.590 6.00 6.00 0.178 0.164 1.7467 1.7265 
0.591 6.00 6.00 0.169 0.201 1.7362 1.7372 
0.592 6.00 6.00 0.234 0.195 1.7446 1.7454 
0.593 6.00 6.00 0.148 0.194 1.7453 1.7493 
0.594 6.00 6.00 0.237 0.178 1.7513 1.7491 
0.595 6.00 6.00 0.175 0.180 1.7575 1.7530 
0.596 6.00 6.00 0.171 0.052 1.7590 1.7559 
0.597 6.00 6.00 0.203 0.103 1.7685 1.7637 
0.598 6.00 6.00 0.114 0.158 1.7714 1.7626 
0.599 6.00 6.00 0.148 0.165 1.7721 1.7667 
0.600 6.00 6.00 0.150 0.202 1.7752 1.7705 
0.601 6.00 6.00 0.178 0.151 1.7748 1.7778 
0.602 6.00 6.00 0.167 0.176 1.7732 1.7054 
0.603 6.00 6.00 0.152 0.157 1.7664 1.7721 
0.604 6.00 6.00 0.200 0.133 1.7719 1.7752 
0.605 6.00 6.00 0.204 0.139 1.7785 1.7738 
0.606 6.00 6.00 0.092 0.155 1.7825 1.7778 
0.607 6.00 6.00 0.172 0.145 1.7926 1.7813 
0.608 6.00 6.00 0.211 0.136 1.7881 1.7878 
0.609 6.00 6.00 0.128 0.154 1.7911 1.7904 
0.610 6.00 6.00 0.213 0.149 1.7912 1.8001 
0.611 6.00 6.00 0.129 0.126 1.7930 1.8001 
0.612 6.00 6.00 0.096 0.109 1.7934 1.7970 
0.613 6.00 6.00 0.159 0.206 1.7863 1.7937 
0.614 6.00 6.00 0.174 0.055 1.7860 1.7917 
0.615 6.00 6.00 0.090 0.107 1.7871 1.7951 
0.616 6.00 6.00 0.196 0.133 1.7894 1.7895 
0.617 6.00 6.00 0.187 0.135 1.8048 1.8001 
0.618 6.00 6.00 0.150 0.132 1.8091 1.8008 
0.619 6.00 6.00 0.100 0.136 1.8097 1.8018 
0.620 6.00 6.00 0.131 0.137 1.8101 1.8058 
0.621 6.00 6.00 0.173 0.122 1.8126 1.8111 
0.622 6.00 6.00 0.129 0.109 1.8039 1.8031 
0.623 6.00 6.00 0.091 0.112 1.8057 1.8072 
0.624 6.00 6.00 0.158 0.153 1.8014 1.8091 
0.625 6.00 6.00 0.218 0.132 1.8060 1.8080 
0.626 6.00 6.00 0.152 0.115 1.8125 1.8215 
0.627 6.00 6.00 0.098 0.136 1.8167 1.8169 
0.628 6.00 6.00 0.109 0.107 1.8205 1.8192 
0.629 6.00 6.00 0.174 0.105 1.8232 1.8225 
0.630 6.00 6.00 0.112 0.118 1.8076 1.8056 
0.631 6.00 6.00 0.070 0.129 1.8143 1.8169 
0.632 6.00 6.00 0.142 0.109 1.8180 1.8003 
0.633 6.00 6.00 0.086 0.104 1.8193 1.8168 
0.634 6.00 6.00 0.071 0.122 1.8258 1.8355 
0.635 6.00 6.00 0.179 0.123 1.8285 1.8342 
0.636 6.00 6.00 0.192 0.109 1.8261 1.8346 
0.637 6.00 6.00 0.116 0.100 1.8270 1.8382 
0.638 6.00 6.00 0.185 0.108 1.8155 1.8003 
0.639 6.00 6.00 0.112 0.096 1.8270 1.8165 
0.640 6.00 6.00 0.063 0.111 1.8310 1.8318 
0.641 6.00 6.00 0.144 0.104 1.8265 1.8289 
0.642 6.00 6.00 0.081 0.113 1.8354 1.8415 
0.643 6.00 6.00 0.095 0.134 1.8408 1.8444 
0.644 6.00 6.00 0.159 0.103 1.8376 1.8444 
0.645 6.00 6.00 0.115 0.137 1.8351 1.8444 
0.646 6.00 6.00 0.170 0.130 1.8277 1.8374 
0.647 6.00 6.00 0.124 0.150 1.8260 1.8395 
0.648 6.00 6.00 0.161 0.097 1.8307 1.8356 
0.649 6.00 6.00 0.092 0.086 1.8353 1.8356 
0.650 6.00 6.00 0.163 0.102 1.8441 1.8444 
0.651 6.00 6.00 0.146 0.044 1.8437 1.8444 
0.652 6.00 6.00 0.098 0.118 1.8409 1.8471 
0.653 6.00 6.00 0.093 0.106 1.8426 1.8506 
0.654 6.00 6.00 0.155 0.121 1.8354 1.8414 
0.655 6.00 6.00 0.135 0.127 1.8327 1.8426 
0.656 6.00 6.00 0.033 0.138 1.8315 1.8426 
0.657 6.00 6.00 0.129 0.114 1.8308 1.8511 
0.658 6.00 6.00 0.174 0.099 1.8378 1.8549 
0.659 6.00 6.00 0.120 0.118 1.8428 1.8506 
0.660 6.00 6.00 0.063 0.114 1.8461 1.8514 
0.661 6.00 6.00 0.082 0.099 1.8389 1.8366 
0.662 6.00 6.00 0.167 0.099 1.8369 1.8421 
0.663 6.00 6.00 0.042 0.107 1.8383 1.8443 
0.664 6.00 6.00 0.093 0.083 1.8390 1.8537 
0.665 6.00 6.00 0.162 0.079 1.8491 1.8594 
0.666 6.00 6.00 0.231 0.107 1.8465 1.8572 
0.667 6.00 6.00 0.139 0.102 1.8429 1.8583 
0.668 6.00 6.00 0.089 0.088 1.8440 1.8473 
0.669 6.00 6.00 0.065 0.090 1.8328 1.8520 
0.670 6.00 6.00 0.023 0.115 1.8415 1.8449 
0.671 6.00 6.00 0.112 0.103 1.8435 1.8612 
0.672 6.00 6.00 0.127 0.082 1.8440 1.8621 
0.673 6.00 6.00 0.147 0.108 1.8526 1.8638 
0.674 6.00 6.00 0.110 0.071 1.8482 1.8658 
0.675 6.00 6.00 0.116 0.077 1.8528 1.8573 
0.676 6.00 6.00 0.150 0.127 1.8419 1.8568 
0.677 6.00 6.00 0.105 0.130 1.8419 1.8578 
0.678 6.00 6.00 0.084 0.114 1.8409 1.8641 
0.679 6.00 6.00 0.116 0.098 1.8402 1.8698 
0.680 6.00 6.00 0.148 0.113 1.8537 1.8645 
0.681 6.00 6.00 0.098 0.091 1.8561 1.8652 
0.682 6.00 6.00 0.074 0.115 1.8573 1.8567 
0.683 6.00 6.00 0.144 0.108 1.8460 1.8560 
0.684 6.00 6.00 0.196 0.116 1.8459 1.8600 
0.685 6.00 6.00 0.158 0.097 1.8457 1.8734 
0.686 6.00 6.00 0.067 0.080 1.8458 1.8733 
0.687 6.00 6.00 0.100 0.114 1.8533 1.8709 
0.688 6.00 6.00 0.140 0.144 1.8514 1.8714 
0.689 6.00 6.00 0.083 0.108 1.8481 1.8637 
0.690 6.00 6.00 0.050 0.136 1.8444 1.8613 
0.691 6.00 6.00 0.107 0.113 1.8399 1.8606 
0.692 6.00 6.00 0.167 0.107 1.8422 1.8691 
0.693 6.00 6.00 0.154 0.083 1.8445 1.8670 
0.694 6.00 6.00 0.050 0.102 1.8500 1.8681 
0.695 6.00 6.00 0.082 0.080 1.8520 1.8602 
0.696 6.00 6.00 0.154 0.092 1.8485 1.8646 
0.697 6.00 6.00 0.118 0.097 1.8505 1.8642 
0.698 6.00 6.00 0.105 0.123 1.8414 1.8632 
0.699 6.00 6.00 0.154 0.098 1.8403 1.8750 
0.700 6.00 6.00 0.085 0.081 1.8327 1.8750 
0.701 6.00 6.00 0.131 0.115 1.8457 1.8706 
0.702 6.00 6.00 0.125 0.096 1.8553 1.8633 
0.703 6.00 6.00 0.201 0.127 1.8568 1.8634 
0.704 6.00 6.00 0.122 0.164 1.8566 1.8617 
0.705 6.00 6.00 0.101 0.118 1.8432 1.8695 
0.706 6.00 6.00 0.200 0.081 1.8508 1.8785 
0.707 6.00 6.00 0.176 0.060 1.8525 1.8780 
0.708 6.00 6.00 0.108 0.113 1.8531 1.8619 
0.709 6.00 6.00 0.058 0.113 1.8602 1.8652 
0.710 6.00 6.00 0.176 0.031 1.8575 1.8663 
0.711 6.00 6.00 0.159 0.081 1.8560 1.8630 
0.712 6.00 6.00 0.099 0.088 1.8545 1.8717 
0.713 6.00 6.00 0.014 0.088 1.8560 1.8762 
0.714 6.00 6.00 0.026 0.065 1.8581 1.8724 
0.715 6.00 6.00 0.154 0.103 1.8559 1.8648 
0.716 6.00 6.00 0.089 0.099 1.8627 1.8663 
0.717 6.00 6.00 0.040 0.080 1.8648 1.8692 
0.718 6.00 6.00 0.071 0.079 1.8620 1.8799 
0.719 6.00 6.00 0.124 0.097 1.8545 1.8803 
0.720 6.00 6.00 0.064 0.102 1.8530 1.8757 
0.721 6.00 6.00 0.101 0.069 1.8515 1.8811 
0.722 6.00 6.00 0.179 0.092 1.8560 1.8695 
0.723 6.00 6.00 0.151 0.078 1.8661 1.8690 
0.724 6.00 6.00 0.065 0.086 1.8666 1.8691 
0.725 6.00 6.00 0.115 0.077 1.8651 1.8757 
0.726 6.00 6.00 0.131 0.078 1.8557 1.8801 
0.727 6.00 6.00 0.094 0.093 1.8569 1.8811 
0.728 6.00 6.00 0.047 0.086 1.8547 1.8721 
0.729 6.00 6.00 0.079 0.107 1.8605 1.8732 
0.730 6.00 6.00 0.122 0.105 1.8646 1.8705 
0.731 6.00 6.00 0.122 0.088 1.8593 1.8766 
0.732 6.00 6.00 0.150 0.095 1.8575 1.8781 
0.733 6.00 6.00 0.137 0.096 1.8501 1.8763 
0.734 6.00 6.00 0.089 0.103 1.8509 1.8802 
0.735 6.00 6.00 0.098 0.097 1.8527 1.8620 
0.736 6.00 6.00 0.183 0.092 1.8599 1.8696 
0.737 6.00 6.00 0.133 0.072 1.8623 1.8671 
0.738 6.00 6.00 0.086 0.076 1.8545 1.8828 
0.739 6.00 6.00 0.048 0.106 1.8585 1.8797 
0.740 6.00 6.00 0.133 0.087 1.8501 1.8800 
0.741 6.00 6.00 0.182 0.103 1.8492 1.8704 
0.742 6.00 6.00 0.150 0.081 1.8478 1.8717 
0.743 6.00 6.00 0.091 0.067 1.8599 1.8704 
0.744 6.00 6.00 0.034 0.080 1.8622 1.8805 
0.745 6.00 6.00 0.095 0.081 1.8645 1.8789 
0.746 6.00 6.00 0.168 0.100 1.8624 1.8805 
0.747 6.00 6.00 0.149 0.077 1.8554 1.8831 
0.748 6.00 6.00 0.069 0.108 1.8563 1.8755 
0.749 6.00 6.00 0.048 0.111 1.8570 1.8733 
0.750 6.00 6.00 0.149 0.119 1.8673 1.8751 
0.751 6.00 6.00 0.101 0.115 1.8663 1.8830 
0.752 6.00 6.00 0.063 0.088 1.8635 1.8842 
0.753 6.00 6.00 0.025 0.097 1.8629 1.8799 
0.754 6.00 6.00 0.053 0.087 1.8597 1.8718 
0.755 6.00 6.00 0.141 0.110 1.8647 1.8712 
0.756 6.00 6.00 0.162 0.122 1.8654 1.8710 
0.757 6.00 6.00 0.161 0.106 1.8735 1.8840 
0.758 6.00 6.00 0.173 -0.000 1.8717 1.8862 
0.759 6.00 6.00 0.173 0.061 1.8730 1.8857 
0.760 6.00 6.00 0.126 0.089 1.8547 1.8770 
0.761 6.00 6.00 0.063 0.087 1.8614 1.8794 
0.762 6.00 6.00 0.157 0.086 1.8579 1.8786 
0.763 6.00 6.00 0.160 0.112 1.8588 1.8744 
0.764 6.00 6.00 0.114 0.099 1.8708 1.8846 
0.765 6.00 6.00 -0.031 -0.003 1.8730 1.8871 
0.766 6.00 6.00 -0.002 0.056 1.8740 1.8828 
0.767 6.00 6.00 0.025 0.085 1.8627 1.8753 
0.768 6.00 6.00 -0.025 0.086 1.8618 1.8791 
0.769 6.00 6.00 0.036 0.130 1.8639 1.8806 
0.770 6.00 6.00 0.026 0.109 1.8720 1.8926 
0.771 6.00 6.00 0.087 0.146 1.8719 1.8880 
0.772 6.00 6.00 0.157 0.099 1.8686 1.8871 
0.773 6.00 6.00 0.192 0.076 1.8674 1.8794 
0.774 6.00 6.00 0.187 0.104 1.8577 1.8765 
0.775 6.00 6.00 0.162 0.084 1.8588 1.8775 
0.776 6.00 6.00 0.166 0.031 1.8589 1.8864 
0.777 6.00 6.00 0.141 0.075 1.8673 1.8836 
0.778 6.00 6.00 0.140 0.074 1.8672 1.8890 
0.779 6.00 6.00 0.110 0.067 1.8664 1.8803 
0.780 6.00 6.00 0.172 0.088 1.8662 1.8805 
0.781 6.00 6.00 0.147 0.097 1.8552 1.8732 
0.782 6.00 6.00 0.059 0.082 1.8503 1.8835 
0.783 6.00 6.00 0.074 0.082 1.8552 1.8930 
0.784 6.00 6.00 0.046 0.089 1.8607 1.8842 
0.785 6.00 6.00 0.039 0.077 1.8666 1.8856 
0.786 6.00 6.00 0.052 0.083 1.8683 1.8740 
0.787 6.00 6.00 0.123 0.096 1.8599 1.8729 
0.788 6.00 6.00 0.182 0.107 1.8584 1.8771 
0.789 6.00 6.00 0.154 0.085 1.8605 1.8878 
0.790 6.00 6.00 0.140 0.066 1.8610 1.8870 
0.791 6.00 6.00 0.065 0.108 1.8699 1.8858 
0.792 6.00 6.00 0.043 0.093 1.8680 1.8772 
0.793 6.00 6.00 0.055 0.098 1.8648 1.8792 
0.794 6.00 6.00 0.128 0.094 1.8545 1.8760 
0.795 6.00 6.00 0.168 0.079 1.8549 1.8818 
0.796 6.00 6.00 0.075 0.081 1.8635 1.8873 
0.797 6.00 6.00 0.063 0.096 1.8724 1.8826 
0.798 6.00 6.00 0.115 0.099 1.8719 1.8760 
0.799 6.00 6.00 0.142 0.073 1.8698 1.8777 
0.800 6.00 6.00 0.181 0.082 1.8704 1.8765 
0.801 6.00 6.00 0.194 -0.003 1.8599 1.8926 
0.802 6.00 6.00 0.189 0.069 1.8592 1.8895 
0.803 6.00 6.00 0.143 0.088 1.8599 1.8874 
0.804 6.00 6.00 0.199 0.084 1.8664 1.8798 
0.805 6.00 6.00 0.192 0.096 1.8652 1.8773 
0.806 6.00 6.00 0.160 0.072 1.8700 1.8756 
0.807 6.00 6.00 0.139 0.065 1.8718 1.8782 
0.808 6.00 6.00 0.154 0.083 1.8679 1.8839 
0.809 6.00 6.00 0.196 0.077 1.8636 1.8877 
0.810 6.00 6.00 0.164 0.089 1.8640 1.8860 
0.811 6.00 6.00 0.185 0.093 1.8714 1.8781 
0.812 6.00 6.00 0.196 0.107 1.8718 1.8773 
0.813 6.00 6.00 0.189 0.100 1.8681 1.8765 
0.814 6.00 6.00 0.199 0.077 1.8605 1.8904 
0.815 6.00 6.00 0.218 0.084 1.8564 1.8835 
0.816 6.00 6.00 0.210 0.057 1.8617 1.8851 
0.817 6.00 6.00 0.174 0.073 1.8618 1.8718 
0.818 6.00 6.00 0.194 0.086 1.8703 1.8745 
0.819 6.00 6.00 0.199 0.062 1.8695 1.8782 
0.820 6.00 6.00 0.189 0.067 1.8686 1.8888 
0.821 6.00 6.00 0.180 0.082 1.8611 1.8880 
0.822 6.00 6.00 0.208 0.111 1.8613 1.8851 
0.823 6.00 6.00 0.220 0.071 1.8594 1.8766 
0.824 6.00 6.00 0.196 0.078 1.8688 1.8777 
0.825 6.00 6.00 0.184 0.098 1.8665 1.8665 
0.826 6.00 6.00 0.159 0.062 1.8620 1.8714 
0.827 6.00 6.00 0.077 0.081 1.8699 1.8806 
0.828 6.00 6.00 0.081 0.081 1.8655 1.8806 
0.829 6.00 6.00 0.049 0.076 1.8665 1.8803 
0.830 6.00 6.00 0.055 0.062 1.8626 1.8712 
0.831 6.00 6.00 0.054 0.075 1.8726 1.8681 
0.832 6.00 6.00 0.093 0.084 1.8715 1.8770 
0.833 6.00 6.00 0.050 0.089 1.8709 1.8841 
0.834 6.00 6.00 0.035 0.092 1.8693 1.8837 
0.835 6.00 6.00 0.006 0.083 1.8589 1.8857 
0.836 6.00 6.00 0.026 0.084 1.8592 1.8721 
0.837 6.00 6.00 0.083 0.081 1.8629 1.8731 
0.838 6.00 6.00 0.038 0.090 1.8701 1.8725 
0.839 6.00 6.00 0.036 0.009 1.8698 1.8782 
0.840 6.00 6.00 0.075 0.058 1.8741 1.8850 
0.841 6.00 6.00 0.117 0.073 1.8621 1.8789 
0.842 6.00 6.00 0.173 0.077 1.8640 1.8888 
0.843 6.00 6.00 0.171 0.121 1.8656 1.8781 
0.844 6.00 6.00 0.176 0.083 1.8720 1.8755 
0.845 6.00 6.00 0.082 0.074 1.8745 1.8800 
0.846 6.00 6.00 0.051 0.076 1.8676 1.8831 
0.847 6.00 6.00 0.036 0.078 1.8687 1.8853 
0.848 6.00 6.00 0.025 0.087 1.8604 1.8895 
0.849 6.00 6.00 0.100 0.106 1.8667 1.8753 
0.850 6.00 6.00 0.122 0.115 1.8689 1.8808 
0.851 6.00 6.00 0.138 0.069 1.8775 1.8820 
0.852 6.00 6.00 0.052 0.084 1.8766 1.8927 
0.853 6.00 6.00 0.025 0.071 1.8709 1.8913 
0.854 6.00 6.00 0.070 0.051 1.8637 1.8913 
0.855 6.00 6.00 0.003 0.077 1.8639 1.8844 
0.856 6.00 6.00 0.038 0.072 1.8631 1.8820 
0.857 6.00 6.00 0.078 0.091 1.8616 1.8814 
0.858 6.00 6.00 0.112 0.096 1.8730 1.8918 
0.859 6.00 6.00 0.131 0.085 1.8772 1.8906 
0.860 6.00 6.00 0.096 0.076 1.8756 1.8897 
0.861 6.00 6.00 0.119 0.055 1.8664 1.8807 
0.862 6.00 6.00 0.059 0.050 1.8642 1.8838 
0.863 6.00 6.00 0.134 0.113 1.8673 1.8837 
0.864 6.00 6.00 0.121 0.111 1.8744 1.8940 
0.865 6.00 6.00 0.072 0.109 1.8730 1.8921 
0.866 6.00 6.00 0.043 0.096 1.8712 1.8938 
0.867 6.00 6.00 0.033 0.091 1.8665 1.8801 
0.868 6.00 6.00 0.152 0.062 1.8573 1.8801 
0.869 6.00 6.00 0.137 0.074 1.8634 1.8791 
0.870 6.00 6.00 0.102 0.103 1.8651 1.8765 
0.871 6.00 6.00 0.112 0.108 1.8726 1.8873 
0.872 6.00 6.00 0.178 0.077 1.8732 1.8871 
0.873 6.00 6.00 0.033 0.073 1.8726 1.8889 
0.874 6.00 6.00 0.050 0.069 1.8642 1.8790 
0.875 6.00 6.00 0.036 0.065 1.8620 1.8766 
0.876 6.00 6.00 0.105 0.069 1.8615 1.8791 
0.877 6.00 6.00 0.182 0.078 1.8629 1.8862 
0.878 6.00 6.00 0.173 0.057 1.8702 1.8855 
0.879 6.00 6.00 0.097 0.069 1.8724 1.8883 
0.880 6.00 6.00 0.031 0.084 1.8738 1.8744 
0.881 6.00 6.00 -0.007 0.091 1.8665 1.8769 
0.882 6.00 6.00 0.027 0.065 1.8644 1.8798 
0.883 6.00 6.00 0.067 0.065 1.8659 1.8903 
0.884 6.00 6.00 0.186 0.098 1.8741 1.8915 
0.885 6.00 6.00 0.145 0.085 1.8735 1.8871 
0.886 6.00 6.00 0.071 0.081 1.8699 1.8809 
0.887 6.00 6.00 0.023 0.084 1.8707 1.8786 
0.888 6.00 6.00 0.054 0.087 1.8596 1.8750 
0.889 6.00 6.00 0.128 0.066 1.8639 1.8841 
0.890 6.00 6.00 0.128 0.072 1.8672 1.8872 
0.891 6.00 6.00 0.159 0.092 1.8791 1.8900 
0.892 6.00 6.00 0.185 0.072 1.8769 1.8913 
0.893 6.00 6.00 0.187 0.072 1.8763 1.8805 
0.894 6.00 6.00 0.175 0.088 1.8625 1.8805 
0.895 6.00 6.00 0.102 0.115 1.8674 1.8805 
0.896 6.00 6.00 0.029 0.096 1.8663 1.8895 
0.897 6.00 6.00 0.062 0.068 1.8645 1.8904 
0.898 6.00 6.00 0.164 0.095 1.8722 1.8834 
0.899 6.00 6.00 0.144 0.073 1.8694 1.8779 
0.900 6.00 6.00 0.128 0.086 1.8738 1.8744 
0.901 6.00 6.00 0.029 0.103 1.8655 1.8709 
0.902 6.00 6.00 0.030 0.107 1.8703 1.8831 
0.903 6.00 6.00 0.016 0.080 1.8688 1.8881 
0.904 6.00 6.00 0.092 0.065 1.8767 1.8864 
0.905 6.00 6.00 0.120 0.091 1.8757 1.8718 
0.906 6.00 6.00 0.177 0.065 1.8751 1.8756 
0.907 6.00 6.00 0.127 0.077 1.8241 1.8773 
0.908 6.00 6.00 0.109 0.094 1.8639 1.8790 
0.909 6.00 6.00 0.064 0.103 1.8606 1.8872 
0.910 6.00 6.00 0.143 0.084 1.8620 1.8873 
0.911 6.00 6.00 0.132 0.079 1.8739 1.8730 
0.912 6.00 6.00 0.180 0.093 1.8755 1.8741 
0.913 6.00 6.00 0.160 0.062 1.8728 1.8778 
0.914 6.00 6.00 0.067 0.058 1.8641 1.8786 
0.915 6.00 6.00 0.046 0.106 1.8648 1.8900 
0.916 6.00 6.00 0.111 0.114 1.8659 1.8857 
0.917 6.00 6.00 0.170 0.123 1.8730 1.8855 
0.918 6.00 6.00 0.116 0.082 1.8717 1.8757 
0.919 6.00 6.00 0.066 0.083 1.8682 1.8741 
0.920 6.00 6.00 0.053 0.058 1.8655 1.8739 
0.921 6.00 6.00 0.006 0.079 1.8661 1.8811 
0.922 6.00 6.00 0.038 0.114 1.8670 1.8791 
0.923 6.00 6.00 0.057 0.098 1.8677 1.8848 
0.924 6.00 6.00 0.115 0.077 1.8740 1.8757 
0.925 6.00 6.00 0.117 0.081 1.8737 1.8754 
0.926 6.00 6.00 0.019 0.098 1.8741 1.8672 
0.927 6.00 6.00 0.021 0.073 1.8621 1.8806 
0.928 6.00 6.00 0.001 0.088 1.8645 1.8882 
0.929 6.00 6.00 0.040 0.104 1.8606 1.8834 
0.930 6.00 6.00 0.083 0.091 1.8605 1.8830 
0.931 6.00 6.00 0.145 0.094 1.8718 1.8749 
0.932 6.00 6.00 0.098 0.104 1.8660 1.8728 
0.933 6.00 6.00 0.063 0.094 1.8748 1.8752 
0.934 6.00 6.00 0.078 0.080 1.8641 1.8872 
0.935 6.00 6.00 0.029 0.092 1.8650 1.8873 
0.936 6.00 6.00 0.072 0.111 1.8670 1.8849 
0.937 6.00 6.00 0.107 0.093 1.8718 1.8757 
0.938 6.00 6.00 0.172 0.087 1.8731 1.8768 
0.939 6.00 6.00 0.154 0.105 1.8714 1.8759 
0.940 6.00 6.00 0.135 0.110 1.8682 1.8825 
0.941 6.00 6.00 0.123 0.087 1.8608 1.8857 
0.942 6.00 6.00 0.008 0.077 1.8678 1.8825 
0.943 6.00 6.00 0.041 0.083 1.8690 1.8745 
0.944 6.00 6.00 0.025 0.066 1.8774 1.8746 
0.945 6.00 6.00 0.062 0.083 1.8792 1.8799 
0.946 6.00 6.00 0.049 0.102 1.8758 1.8860 
0.947 6.00 6.00 0.063 0.100 1.8640 1.8884 
0.948 6.00 6.00 0.083 0.094 1.8657 1.8860 
0.949 6.00 6.00 0.031 0.086 1.8660 1.8903 
0.950 6.00 6.00 0.023 0.096 1.8636 1.8761 
0.951 6.00 6.00 0.066 0.062 1.8727 1.8770 
0.952 6.00 6.00 0.126 0.082 1.8748 1.8762 
0.953 6.00 6.00 0.164 0.106 1.8775 1.8841 
0.954 6.00 6.00 0.128 0.088 1.8707 1.8899 
0.955 6.00 6.00 0.063 0.089 1.8684 1.8893 
0.956 6.00 6.00 -0.006 0.092 1.8695 1.8801 
0.957 6.00 6.00 0.063 0.127 1.8784 1.8808 
0.958 6.00 6.00 0.147 0.100 1.8781 1.8787 
0.959 6.00 6.00 0.202 0.099 1.8755 1.8916 
0.960 6.00 6.00 0.143 0.095 1.8652 1.8870 
0.961 6.00 6.00 0.060 0.084 1.8631 1.8877 
0.962 6.00 6.00 0.048 0.089 1.8668 1.8768 
0.963 6.00 6.00 0.064 0.093 1.8703 1.8751 
0.964 6.00 6.00 0.170 0.109 1.8831 1.8755 
0.965 6.00 6.00 0.162 0.073 1.8774 1.8907 
0.966 6.00 6.00 0.100 0.077 1.8804 1.8917 
0.967 6.00 6.00 0.086 0.111 1.8674 1.8886 
0.968 6.00 6.00 0.067 0.085 1.8694 1.8794 
0.969 6.00 6.00 0.148 0.084 1.8687 1.8808 
0.970 6.00 6.00 0.128 0.100 1.8762 1.8734 
0.971 6.00 6.00 0.067 0.098 1.8751 1.8799 
0.972 6.00 6.00 0.048 0.120 1.8722 1.8874 
0.973 6.00 6.00 0.055 0.084 1.7968 1.8820 
0.974 6.00 6.00 0.131 0.096 1.8699 1.8840 
0.975 6.00 6.00 0.134 0.062 1.8734 1.8757 
0.976 6.00 6.00 0.165 0.080 1.8713 1.8747 
0.977 6.00 6.00 0.158 0.097 1.8790 1.8797 
0.978 6.00 6.00 0.181 0.101 1.8764 1.8882 
0.979 6.00 6.00 0.173 0.083 1.8772 1.8867 
0.980 6.00 6.00 0.150 0.068 1.8679 1.8891 
0.981 6.00 6.00 0.093 0.123 1.8649 1.8760 
0.982 6.00 6.00 0.033 0.106 1.8663 1.8769 
0.983 6.00 6.00 0.036 0.091 1.8759 1.8762 
0.984 6.00 6.00 -0.006 0.115 1.8792 1.8831 
0.985 6.00 6.00 0.120 0.096 1.8796 1.8872 
0.986 6.00 6.00 0.173 0.100 1.8678 1.8868 
0.987 6.00 6.00 0.151 0.097 1.8680 1.8786 
0.988 6.00 6.00 0.168 0.107 1.8634 1.8775 
0.989 6.00 6.00 0.131 0.084 1.8656 1.8751 
0.990 6.00 6.00 0.070 0.068 1.8678 1.8900 
0.991 6.00 6.00 0.107 0.087 1.8672 1.8839 
0.992 6.00 6.00 0.145 0.067 1.8627 1.8839 
0.993 6.00 6.00 0.098 0.050 1.8544 1.8850 
0.994 6.00 6.00 0.097 0.077 1.8591 1.8694 
0.995 6.00 6.00 0.166 0.095 1.8641 1.8755 
0.996 6.00 6.00 0.123 0.064 1.8650 1.8755 
0.997 6.00 6.00 0.066 0.053 1.8732 1.8869 
0.998 6.00 6.00 0.029 0.106 1.8703 1.8811 
0.999 6.00 6.00 0.051 0.078 1.8703 1.8841 
1.000 6.00 6.00 0.120 0.088 1.8545 1.8699 
1.001 6.00 6.00 0.125 0.100 1.8613 1.8765 
1.002 6.00 6.00 0.153 0.092 1.8537 1.8703 
1.003 0.00 0.00 0.156 0.064 1.8690 1.8875 
1.004 0.00 0.00 -0.113 -0.031 1.8686 1.8833 
1.005 0.00 0.00 -0.676 -0.457 1.8492 1.8640 
1.006 0.00 0.00 -0.951 -0.909 1.8182 1.8375 
1.007 0.00 0.00 -1.129 -1.040 1.7792 1.7808 
1.008 0.00 0.00 -1.171 -1.230 1.7255 1.7466 
1.009 0.00 0.00 -1.140 -1.180 1.6862 1.7059 
1.010 0.00 0.00 -1.152 -1.296 1.6355 1.6437 
1.011 0.00 0.00 -1.137 -1.159 1.5751 1.6025 
1.012 0.00 0.00 -1.148 -1.263 1.5455 1.5550 
1.013 0.00 0.00 -1.128 -1.147 1.5140 1.5214 
1.014 0.00 0.00 -1.064 -1.207 1.4638 1.5014 
1.015 0.00 0.00 -1.145 -1.057 1.4288 1.4755 
1.016 0.00 0.00 -1.011 -1.126 1.3982 1.4215 
1.017 0.00 0.00 -1.106 -1.130 1.3578 1.3969 
1.018 0.00 0.00 -0.962 -1.070 1.3189 1.3615 
1.019 0.00 0.00 -0.992 -1.050 1.2730 1.3177 
1.020 0.00 0.00 -1.049 -0.933 1.2279 1.2851 
1.021 0.00 0.00 -0.912 -1.036 1.2036 1.2585 
1.022 0.00 0.00 -0.985 -0.995 1.1741 1.2302 
1.023 0.00 0.00 -0.904 -0.959 1.1499 1.1888 
1.024 0.00 0.00 -0.824 -1.029 1.1153 1.1597 
1.025 0.00 0.00 -0.904 -0.880 1.0681 1.1428 
1.026 0.00 0.00 -0.867 -0.893 1.0401 1.1039 
1.027 0.00 0.00 -0.788 -0.987 1.0070 1.0636 
1.028 0.00 0.00 -0.842 -0.863 0.9756 1.0405 
1.029 0.00 0.00 -0.872 -0.859 0.9444 1.0046 
1.030 0.00 0.00 -0.715 -0.906 0.9202 0.9804 
1.031 0.00 0.00 -0.741 -0.758 0.8841 0.9561 
1.032 0.00 0.00 -0.787 -0.761 0.8584 0.9336 
1.033 0.00 0.00 -0.733 -0.821 0.8303 0.9048 
1.034 0.00 0.00 -0.643 -0.881 0.8002 0.8779 
1.035 0.00 0.00 -0.679 -0.757 0.7637 0.8555 
1.036 0.00 0.00 -0.727 -0.733 0.7555 0.8325 
1.037 0.00 0.00 -0.700 -0.725 0.7210 0.7882 
1.038 0.00 0.00 -0.565 -0.639 0.7066 0.7756 
1.039 0.00 0.00 -0.569 -0.573 0.6715 0.7550 
1.040 0.00 0.00 -0.611 -0.623 0.6637 0.7322 
1.041 0.00 0.00 -0.634 -0.690 0.6331 0.7123 
1.042 0.00 0.00 -0.603 -0.682 0.6093 0.6900 
1.043 0.00 0.00 -0.494 -0.579 0.5913 0.6655 
1.044 0.00 0.00 -0.500 -0.574 0.5729 0.6533 
1.045 0.00 0.00 -0.523 -0.600 0.5520 0.6344 
1.046 0.00 0.00 -0.538 -0.616 0.5203 0.6126 
1.047 0.00 0.00 -0.531 -0.607 0.5014 0.5845 
1.048 0.00 0.00 -0.466 -0.460 0.4821 0.5775 
1.049 0.00 0.00 -0.366 -0.443 0.4751 0.5474 
1.050 0.00 0.00 -0.372 -0.494 0.4696 0.5378 
1.051 0.00 0.00 -0.401 -0.514 0.4331 0.5285 
1.052 0.00 0.00 -0.436 -0.528 0.4209 0.5066 
